Wavelength Signal SignalFiltered 
350.2 274.3 50.0
350.8 281.5 49.7
351.4 285.9 49.5
352.0 293.0 48.6
352.6 298.8 48.4
353.2 303.2 47.6
353.8 312.8 48.7
354.4 322.6 48.0
354.9 333.7 48.2
355.5 342.6 48.2
356.1 355.5 49.0
356.7 369.5 48.6
357.3 377.6 49.0
357.9 389.1 50.3
358.5 400.9 49.6
359.0 411.6 49.4
359.6 422.7 49.7
360.2 432.8 49.4
360.8 447.2 49.4
361.4 459.5 47.7
362.0 474.0 46.4
362.6 489.0 45.5
363.1 499.0 45.3
363.7 514.6 46.4
364.3 529.5 45.4
364.9 540.4 45.6
365.5 552.2 45.6
366.1 565.9 43.5
366.7 578.8 44.3
367.2 586.5 44.8
367.8 597.5 44.9
368.4 619.3 46.0
369.0 635.8 45.1
369.6 649.9 46.0
370.2 666.4 45.7
370.8 685.6 45.4
371.3 704.8 46.4
371.9 721.6 46.8
372.5 742.1 47.0
373.1 768.8 47.2
373.7 786.5 47.0
374.3 807.2 46.8
374.8 840.0 46.2
375.4 870.8 45.5
376.0 898.7 45.2
376.6 923.5 45.0
377.2 953.5 44.9
377.8 981.8 46.0
378.4 1001.8 45.6
378.9 1022.4 44.7
379.5 1038.3 46.9
380.1 1048.8 47.0
380.7 1070.9 47.0
381.3 1090.5 47.8
381.9 1120.5 48.6
382.4 1149.1 47.5
383.0 1175.7 47.1
383.6 1201.7 47.7
384.2 1235.3 46.7
384.8 1278.3 46.0
385.4 1311.3 46.6
386.0 1337.9 45.9
386.5 1375.3 47.1
387.1 1400.6 47.5
387.7 1420.3 48.0
388.3 1441.2 47.9
388.9 1463.4 49.0
389.5 1493.5 49.9
390.0 1511.8 48.5
390.6 1539.0 49.6
391.2 1556.8 51.9
391.8 1564.3 52.3
392.4 1591.9 52.5
393.0 1614.1 53.2
393.5 1637.8 53.7
394.1 1669.7 53.8
394.7 1694.7 54.8
395.3 1718.5 55.8
395.9 1738.1 55.6
396.5 1756.4 55.6
397.0 1792.4 54.8
397.6 1810.5 53.6
398.2 1856.7 55.7
398.8 1902.2 56.4
399.4 1922.2 55.6
400.0 1946.9 57.5
400.5 1971.1 57.3
401.1 1995.3 58.2
401.7 2016.5 59.1
402.3 2039.5 60.6
402.9 2067.0 62.2
403.5 2073.1 62.5
404.0 2094.0 63.5
404.6 2127.6 64.9
405.2 2143.2 63.6
405.8 2183.8 65.1
406.4 2204.2 64.6
407.0 2244.9 64.3
407.5 2276.3 65.7
408.1 2309.0 65.9
408.7 2336.2 65.2
409.3 2357.0 66.1
409.9 2397.4 65.3
410.5 2442.4 66.5
411.0 2495.8 67.5
411.6 2564.5 68.2
412.2 2622.7 68.8
412.8 2692.2 68.2
413.4 2766.0 68.2
414.0 2828.7 69.0
414.5 2906.1 68.1
415.1 2947.7 69.7
415.7 2992.7 69.5
416.3 3019.9 69.1
416.9 3073.0 70.6
417.5 3085.9 71.0
418.0 3095.1 72.7
418.6 3113.6 74.4
419.2 3184.2 74.4
419.8 3180.8 76.3
420.4 3181.2 78.0
420.9 3254.3 78.5
421.5 3275.7 78.3
422.1 3308.4 78.1
422.7 3385.2 78.2
423.3 3492.7 76.4
423.9 3599.5 76.9
424.4 3648.8 77.6
425.0 3723.2 76.8
425.6 3810.1 75.5
426.2 3826.5 76.2
426.8 3885.6 78.2
427.3 3916.0 78.7
427.9 3951.9 80.6
428.5 3938.6 82.0
429.1 3907.3 82.0
429.7 3904.6 84.0
430.3 3931.8 83.5
430.8 3964.9 83.8
431.4 3996.3 85.7
432.0 4025.4 84.8
432.6 4057.4 85.5
433.2 4085.8 86.1
433.7 4115.0 87.3
434.3 4144.2 86.6
434.9 4174.1 86.1
435.5 4200.3 88.4
436.1 4233.6 89.1
436.7 4258.4 89.2
437.2 4293.4 91.9
437.8 4319.9 91.7
438.4 4351.1 91.5
439.0 4387.0 93.4
439.6 4425.7 94.3
440.1 4462.4 93.9
440.7 4507.3 95.2
441.3 4550.5 96.3
441.9 4603.1 96.5
442.5 4656.2 95.8
443.0 4717.7 97.3
443.6 4781.3 98.5
444.2 4845.0 96.5
444.8 4910.4 97.5
445.4 4991.0 99.0
445.9 5074.8 97.7
446.5 5155.4 97.8
447.1 5235.4 96.8
447.7 5319.7 98.7
448.3 5397.0 99.4
448.8 5479.5 99.1
449.4 5564.8 99.8
450.0 5647.1 102.0
450.6 5721.4 101.7
451.2 5786.8 102.8
451.7 5866.3 103.0
452.3 5944.3 103.6
452.9 6013.4 102.8
453.5 6089.2 101.9
454.1 6156.0 102.2
454.6 6219.5 102.7
455.2 6283.7 103.0
455.8 6348.2 104.7
456.4 6413.7 104.1
457.0 6471.5 105.1
457.5 6534.0 107.1
458.1 6600.0 107.9
458.7 6663.2 108.7
459.3 6727.2 109.0
459.9 6798.9 109.9
460.4 6874.9 108.4
461.0 6950.8 108.3
461.6 7027.2 109.5
462.2 7110.5 111.0
462.8 7193.9 110.9
463.3 7273.0 111.7
463.9 7364.8 112.7
464.5 7453.7 116.1
465.1 7550.2 116.4
465.7 7653.1 116.5
466.2 7749.7 118.8
466.8 7852.9 119.1
467.4 7958.3 118.9
468.0 8066.2 120.5
468.6 8183.8 120.0
469.1 8292.9 120.9
469.7 8409.0 120.1
470.3 8513.9 120.4
470.9 8592.9 122.2
471.5 8676.3 121.1
472.0 8767.1 121.9
472.6 8833.3 121.3
473.2 8903.8 120.7
473.8 8974.2 122.3
474.3 9033.5 122.8
474.9 9087.2 122.8
475.5 9131.5 124.0
476.1 9192.7 124.9
476.7 9247.1 124.9
477.2 9269.9 125.9
477.8 9308.7 127.9
478.4 9331.0 129.0
479.0 9343.7 128.8
479.6 9361.0 128.4
480.1 9371.6 127.3
480.7 9388.6 128.5
481.3 9395.9 129.9
481.9 9409.9 130.4
482.4 9429.7 130.5
483.0 9445.3 131.7
483.6 9467.8 131.6
484.2 9496.4 131.7
484.8 9515.4 132.1
485.3 9538.7 133.4
485.9 9560.9 133.2
486.5 9573.2 134.2
487.1 9581.9 135.3
487.6 9605.0 136.2
488.2 9615.3 136.0
488.8 9631.0 137.0
489.4 9634.4 137.6
490.0 9650.6 137.7
490.5 9664.9 138.3
491.1 9668.4 138.4
491.7 9692.5 136.0
492.3 9706.1 137.6
492.8 9714.9 136.6
493.4 9726.7 136.7
494.0 9730.3 137.3
494.6 9741.4 138.2
495.2 9737.8 140.9
495.7 9728.4 143.1
496.3 9708.6 143.4
496.9 9698.0 146.3
497.5 9690.9 146.2
498.0 9674.0 147.0
498.6 9661.1 148.5
499.2 9634.6 149.6
499.8 9605.0 150.5
500.4 9577.3 149.9
500.9 9553.4 149.5
501.5 9535.8 152.1
502.1 9512.4 151.5
502.7 9484.9 151.5
503.2 9460.7 153.2
503.8 9431.9 153.1
504.4 9409.7 153.1
505.0 9396.7 155.0
505.5 9388.6 155.5
506.1 9375.8 156.5
506.7 9376.3 156.7
507.3 9373.2 156.8
507.8 9379.1 158.5
508.4 9394.5 159.4
509.0 9418.5 159.0
509.6 9454.7 158.9
510.2 9475.0 158.0
510.7 9499.4 159.6
511.3 9529.2 158.3
511.9 9571.9 157.5
512.5 9612.2 158.4
513.0 9648.9 157.4
513.6 9692.2 157.9
514.2 9742.0 159.4
514.8 9787.3 160.5
515.3 9836.0 161.7
515.9 9909.7 161.1
516.5 9980.1 163.0
517.1 10041.7 164.5
517.6 10109.0 166.0
518.2 10166.8 166.9
518.8 10216.9 167.7
519.4 10260.5 169.5
519.9 10305.9 171.6
520.5 10364.9 172.8
521.1 10394.2 175.4
521.7 10429.3 176.7
522.3 10455.4 178.4
522.8 10471.5 182.0
523.4 10489.0 187.0
524.0 10512.9 190.2
524.6 10534.7 192.0
525.1 10550.6 196.2
525.7 10565.4 202.8
526.3 10585.7 211.5
526.9 10609.6 221.4
527.4 10630.2 233.1
528.0 10655.5 247.2
528.6 10700.9 264.2
529.2 10733.4 285.8
529.7 10770.9 314.4
530.3 10815.9 347.6
530.9 10847.0 385.1
531.5 10867.1 428.0
532.0 10889.6 479.0
532.6 10918.6 539.4
533.2 10945.5 608.2
533.8 10967.2 684.8
534.3 11003.4 773.5
534.9 11039.9 872.5
535.5 11062.8 982.5
536.1 11110.5 1107.1
536.6 11175.8 1239.0
537.2 11227.1 1388.4
537.8 11282.3 1548.1
538.4 11353.7 1719.9
538.9 11426.0 1910.5
539.5 11488.2 2114.6
540.1 11558.9 2327.9
540.7 11640.1 2550.9
541.2 11698.4 2787.5
541.8 11766.0 3040.9
542.4 11838.6 3297.2
542.9 11919.5 3563.5
543.5 11986.7 3836.9
544.1 12046.0 4117.0
544.7 12115.6 4399.5
545.2 12172.9 4693.5
545.8 12218.2 4987.2
546.4 12280.3 5281.7
547.0 12341.8 5573.2
547.5 12412.0 5873.4
548.1 12469.7 6179.8
548.7 12520.0 6482.6
549.3 12570.8 6779.3
549.8 12611.9 7067.2
550.4 12644.9 7349.0
551.0 12702.8 7632.6
551.6 12745.4 7918.8
552.1 12774.5 8194.9
552.7 12789.0 8452.6
553.3 12816.9 8691.6
553.9 12836.5 8922.0
554.4 12861.2 9151.7
555.0 12881.1 9374.0
555.6 12906.3 9579.3
556.1 12923.4 9767.5
556.7 12942.1 9937.1
557.3 12943.1 10105.0
557.9 12952.6 10266.6
558.4 12954.2 10401.8
559.0 12973.9 10528.6
559.6 12989.7 10645.2
560.2 13012.2 10751.9
560.7 13024.3 10852.1
561.3 13034.8 10950.4
561.9 13051.4 11031.6
562.4 13080.6 11095.3
563.0 13110.6 11146.7
563.6 13140.5 11211.6
564.2 13160.9 11269.4
564.7 13184.3 11304.4
565.3 13213.0 11336.5
565.9 13262.2 11350.3
566.5 13290.1 11343.1
567.0 13321.0 11341.8
567.6 13354.5 11336.7
568.2 13395.4 11330.6
568.7 13437.4 11321.7
569.3 13474.7 11291.4
569.9 13515.9 11262.2
570.5 13551.0 11218.3
571.0 13575.9 11193.5
571.6 13625.4 11187.8
572.2 13664.9 11170.1
572.8 13699.6 11151.0
573.3 13726.8 11131.7
573.9 13751.7 11104.1
574.5 13784.6 11096.1
575.0 13813.4 11092.7
575.6 13832.8 11099.3
576.2 13852.3 11105.9
576.8 13857.3 11097.6
577.3 13864.6 11101.1
577.9 13877.4 11108.2
578.5 13887.7 11120.8
579.0 13866.1 11143.5
579.6 13857.9 11163.0
580.2 13843.4 11173.7
580.8 13837.6 11184.4
581.3 13822.7 11183.5
581.9 13807.1 11184.1
582.5 13783.8 11174.3
583.0 13752.2 11175.1
583.6 13705.9 11164.0
584.2 13693.3 11144.8
584.8 13655.2 11116.5
585.3 13617.2 11086.8
585.9 13560.6 11066.6
586.5 13509.2 11046.3
587.0 13442.7 11022.4
587.6 13383.6 11010.7
588.2 13318.6 10982.8
588.8 13259.4 10947.2
589.3 13195.1 10917.5
589.9 13119.1 10894.9
590.5 13038.2 10880.3
591.0 12958.8 10852.4
591.6 12889.6 10828.1
592.2 12839.2 10799.3
592.8 12780.1 10759.5
593.3 12732.5 10724.3
593.9 12681.9 10700.8
594.5 12629.7 10671.2
595.0 12594.0 10642.9
595.6 12567.0 10609.2
596.2 12556.4 10570.1
596.8 12539.4 10526.1
597.3 12518.5 10488.7
597.9 12496.9 10447.6
598.5 12479.9 10401.7
599.0 12472.9 10357.7
599.6 12470.5 10307.2
600.2 12468.9 10256.7
600.7 12460.8 10208.0
601.3 12449.2 10163.7
601.9 12428.1 10116.1
602.5 12407.9 10076.3
603.0 12392.9 10032.8
603.6 12368.7 9990.6
604.2 12353.8 9940.5
604.7 12325.6 9896.8
605.3 12290.2 9847.8
605.9 12259.6 9796.6
606.4 12227.9 9754.8
607.0 12206.6 9715.2
607.6 12182.5 9676.2
608.2 12162.7 9640.4
608.7 12146.7 9601.9
609.3 12098.2 9574.1
609.9 12062.2 9539.5
610.4 12036.5 9513.9
611.0 12004.4 9495.7
611.6 11978.7 9469.3
612.1 11952.7 9447.3
612.7 11918.2 9428.4
613.3 11867.2 9412.5
613.8 11823.2 9408.5
614.4 11800.1 9393.6
615.0 11772.2 9393.9
615.6 11738.6 9396.6
616.1 11709.0 9396.1
616.7 11666.2 9408.1
617.3 11620.8 9427.2
617.8 11580.7 9441.0
618.4 11548.1 9457.7
619.0 11505.1 9478.5
619.5 11455.1 9512.3
620.1 11402.6 9544.2
620.7 11349.2 9576.0
621.2 11291.8 9618.0
621.8 11230.5 9660.5
622.4 11164.7 9702.2
623.0 11116.6 9745.3
623.5 11066.0 9778.1
624.1 11012.5 9779.3
624.7 10963.6 9820.6
625.2 10905.9 9866.4
625.8 10854.2 9908.6
626.4 10799.6 9935.2
626.9 10769.1 9945.4
627.5 10728.9 9957.7
628.1 10681.6 9959.4
628.6 10638.3 9975.6
629.2 10603.0 10016.1
629.8 10563.4 10008.9
630.3 10534.2 9992.0
630.9 10504.8 9978.6
631.5 10480.0 9958.2
632.0 10438.3 9944.7
632.6 10411.7 9924.3
633.2 10395.6 9906.9
633.7 10379.9 9878.0
634.3 10358.6 9852.7
634.9 10349.5 9822.7
635.5 10346.4 9792.4
636.0 10343.0 9757.4
636.6 10349.0 9723.8
637.2 10368.0 9696.8
637.7 10384.5 9660.8
638.3 10397.4 9630.6
638.9 10413.3 9606.2
639.4 10435.4 9574.7
640.0 10454.5 9546.2
640.6 10483.8 9514.6
641.1 10520.9 9483.3
641.7 10557.1 9454.2
642.3 10591.5 9421.7
642.8 10638.5 9394.7
643.4 10688.1 9360.2
644.0 10723.3 9332.2
644.5 10732.2 9302.7
645.1 10787.5 9268.8
645.7 10829.3 9238.3
646.2 10866.5 9202.9
646.8 10896.2 9175.0
647.4 10914.2 9148.4
647.9 10928.2 9122.6
648.5 10931.4 9103.9
649.1 10950.2 9073.1
649.6 10989.9 9044.4
650.2 10978.5 9027.6
650.8 10967.2 9007.2
651.3 10959.9 8991.1
651.9 10944.7 8974.2
652.5 10937.7 8951.5
653.0 10916.6 8933.7
653.6 10892.6 8919.3
654.2 10867.4 8901.1
654.7 10843.4 8889.1
655.3 10812.6 8868.1
655.9 10783.6 8853.2
656.4 10747.2 8837.8
657.0 10717.7 8825.0
657.6 10681.2 8811.6
658.1 10653.0 8797.9
658.7 10620.8 8781.9
659.3 10593.9 8778.1
659.8 10563.5 8764.5
660.4 10541.8 8759.1
661.0 10512.8 8753.5
661.5 10480.6 8750.3
662.1 10443.1 8748.2
662.7 10412.5 8744.2
663.2 10381.8 8738.1
663.8 10346.0 8732.4
664.4 10317.0 8721.4
664.9 10282.2 8719.5
665.5 10249.3 8715.3
666.1 10208.6 8709.5
666.6 10175.8 8702.2
667.2 10147.8 8697.5
667.7 10117.1 8695.3
668.3 10088.0 8688.8
668.9 10063.3 8694.2
669.4 10031.4 8706.5
670.0 10010.4 8708.7
670.6 9982.7 8719.5
671.1 9966.8 8729.9
671.7 9947.1 8744.5
672.3 9929.1 8762.5
672.8 9909.3 8784.3
673.4 9881.0 8806.4
674.0 9862.9 8817.9
674.5 9843.1 8825.1
675.1 9818.4 8832.9
675.7 9801.4 8831.5
676.2 9779.9 8825.1
676.8 9753.9 8806.4
677.4 9734.7 8779.0
677.9 9718.3 8744.5
678.5 9713.8 8701.1
679.0 9691.8 8653.4
679.6 9675.6 8603.0
680.2 9662.7 8550.7
680.7 9650.8 8494.9
681.3 9640.9 8437.1
681.9 9638.6 8384.5
682.4 9627.9 8326.7
683.0 9620.0 8269.9
683.6 9608.4 8219.2
684.1 9607.2 8168.7
684.7 9601.6 8110.5
685.3 9595.1 8062.4
685.8 9589.0 8009.5
686.4 9584.0 7959.0
687.0 9576.6 7907.6
687.5 9583.5 7859.5
688.1 9578.9 7811.7
688.6 9573.0 7764.2
689.2 9567.1 7715.2
689.8 9567.5 7668.0
690.3 9578.5 7616.6
690.9 9594.5 7566.5
691.5 9612.3 7519.4
692.0 9631.3 7471.2
692.6 9638.4 7413.9
693.2 9656.0 7363.2
693.7 9680.0 7312.4
694.3 9704.2 7256.6
694.8 9722.4 7204.6
695.4 9723.5 7151.3
696.0 9722.5 7100.8
696.5 9718.5 7047.3
697.1 9710.5 6998.1
697.7 9687.8 6952.6
698.2 9651.1 6898.3
698.8 9610.5 6847.6
699.3 9569.6 6795.9
699.9 9510.6 6747.7
700.5 9456.1 6691.7
701.0 9393.9 6641.7
701.6 9331.0 6594.1
702.2 9260.5 6542.6
702.7 9203.0 6496.2
703.3 9148.6 6449.9
703.9 9084.6 6404.5
704.4 9020.8 6363.7
705.0 8975.8 6318.5
705.5 8927.8 6281.1
706.1 8873.5 6236.8
706.7 8820.3 6193.3
707.2 8774.1 6152.3
707.8 8724.9 6107.1
708.4 8681.4 6064.2
708.9 8631.0 6021.8
709.5 8586.5 5977.4
710.0 8526.2 5935.6
710.6 8471.7 5892.0
711.2 8414.0 5852.3
711.7 8354.7 5813.9
712.3 8287.0 5770.9
712.9 8226.4 5734.3
713.4 8162.6 5705.0
714.0 8106.2 5668.2
714.5 8045.6 5632.8
715.1 7992.5 5597.1
715.7 7936.1 5564.7
716.2 7881.4 5533.5
716.8 7830.7 5498.2
717.3 7784.0 5467.6
717.9 7730.6 5432.5
718.5 7677.0 5392.4
719.0 7623.1 5359.4
719.6 7566.4 5322.1
720.2 7505.0 5286.3
720.7 7448.0 5251.2
721.3 7391.6 5214.6
721.8 7336.4 5179.1
722.4 7275.1 5137.7
723.0 7216.2 5101.6
723.5 7163.0 5063.9
724.1 7112.6 5025.9
724.6 7060.4 4994.4
725.2 7013.9 4956.3
725.8 6960.1 4916.0
726.3 6911.5 4877.6
726.9 6863.6 4833.1
727.5 6817.1 4797.0
728.0 6769.7 4759.3
728.6 6720.0 4725.5
729.1 6669.2 4685.7
729.7 6624.2 4649.5
730.3 6579.1 4618.9
730.8 6534.4 4581.9
731.4 6491.0 4545.6
731.9 6441.2 4518.8
732.5 6397.9 4486.3
733.1 6355.6 4454.7
733.6 6312.9 4415.0
734.2 6271.1 4378.3
734.7 6231.2 4335.9
735.3 6184.6 4295.9
735.9 6144.7 4263.0
736.4 6106.1 4221.1
737.0 6066.3 4182.4
737.5 6031.0 4142.4
738.1 5991.3 4096.2
738.7 5949.2 4059.3
739.2 5913.6 4019.8
739.8 5867.2 3984.5
740.3 5828.8 3945.1
740.9 5792.8 3905.2
741.5 5751.6 3870.9
742.0 5718.4 3829.8
742.6 5674.7 3792.6
743.1 5637.5 3758.5
743.7 5607.3 3719.5
744.3 5567.8 3682.0
744.8 5535.6 3643.1
745.4 5497.5 3608.7
745.9 5456.4 3574.3
746.5 5420.7 3534.2
747.1 5376.3 3496.0
747.6 5342.2 3458.3
748.2 5306.1 3424.9
748.7 5267.0 3387.3
749.3 5225.3 3354.6
749.9 5187.9 3323.5
750.4 5146.6 3288.4
751.0 5105.1 3251.2
751.5 5060.2 3223.3
752.1 5023.8 3191.2
752.7 4985.0 3162.5
753.2 4943.0 3128.9
753.8 4898.2 3100.4
754.3 4859.8 3067.9
754.9 4813.6 3035.5
755.4 4779.3 3006.8
756.0 4742.4 2980.4
756.6 4704.4 2950.0
757.1 4666.2 2924.7
757.7 4621.4 2891.1
758.2 4583.0 2862.3
758.8 4542.2 2833.6
759.4 4495.9 2808.2
759.9 4456.7 2783.0
760.5 4413.2 2756.3
761.0 4368.7 2728.5
761.6 4325.3 2702.9
762.2 4281.5 2678.4
762.7 4243.7 2657.5
763.3 4198.8 2636.2
763.8 4158.7 2614.7
764.4 4124.9 2593.8
764.9 4085.7 2571.9
765.5 4048.0 2551.7
766.1 4010.6 2530.9
766.6 3969.0 2511.1
767.2 3926.3 2490.4
767.7 3886.0 2471.6
768.3 3844.3 2451.8
768.8 3808.5 2433.7
769.4 3769.5 2415.3
770.0 3727.5 2396.0
770.5 3688.5 2377.4
771.1 3649.8 2361.9
771.6 3616.4 2343.7
772.2 3579.9 2329.2
772.8 3539.0 2311.5
773.3 3508.3 2295.1
773.9 3472.2 2280.0
774.4 3433.7 2266.2
775.0 3403.1 2250.6
775.5 3371.7 2235.2
776.1 3343.9 2220.8
776.7 3310.2 2205.4
777.2 3277.9 2187.9
777.8 3245.4 2176.2
778.3 3213.0 2164.4
778.9 3179.7 2149.3
779.4 3151.6 2133.6
780.0 3123.5 2120.7
780.6 3092.1 2107.1
781.1 3058.6 2094.8
781.7 3028.8 2084.4
782.2 3000.0 2071.5
782.8 2979.3 2056.0
783.3 2951.1 2041.1
783.9 2924.8 2028.6
784.4 2901.0 2015.8
785.0 2876.1 2002.7
785.6 2849.0 1990.5
786.1 2823.1 1977.8
786.7 2801.3 1967.5
787.2 2780.5 1957.9
787.8 2757.1 1947.1
788.3 2735.3 1936.8
788.9 2713.0 1927.4
789.5 2692.2 1917.2
790.0 2668.1 1906.9
790.6 2648.9 1897.8
791.1 2631.8 1885.8
791.7 2613.7 1874.2
792.2 2593.9 1862.0
792.8 2573.1 1850.1
793.3 2555.7 1839.1
793.9 2540.8 1825.2
794.5 2523.4 1810.9
795.0 2507.2 1796.6
795.6 2491.9 1782.0
796.1 2475.3 1771.6
796.7 2459.5 1757.9
797.2 2445.0 1745.1
797.8 2430.3 1731.8
798.3 2416.1 1720.7
798.9 2399.8 1708.3
799.5 2384.5 1694.5
800.0 2365.3 1687.2
800.6 2352.5 1675.4
801.1 2340.2 1664.1
801.7 2326.2 1651.4
802.2 2311.3 1638.8
802.8 2298.7 1627.5
803.3 2286.4 1611.9
803.9 2275.7 1601.9
804.5 2260.4 1590.7
805.0 2254.2 1576.9
805.6 2238.2 1563.2
806.1 2222.6 1548.8
806.7 2209.9 1536.4
807.2 2196.1 1523.7
807.8 2181.8 1514.1
808.3 2168.9 1502.2
808.9 2151.7 1489.1
809.5 2141.4 1481.7
810.0 2127.4 1473.3
810.6 2114.6 1465.5
811.1 2104.3 1457.9
811.7 2092.8 1456.7
812.2 2079.1 1454.5
812.8 2070.5 1453.3
813.3 2056.9 1453.1
813.9 2048.0 1454.8
814.4 2037.6 1457.3
815.0 2025.1 1456.7
815.5 2015.0 1459.3
816.1 1999.8 1461.3
816.7 1986.9 1460.9
817.2 1975.8 1458.2
817.8 1960.8 1455.9
818.3 1949.3 1453.3
818.9 1934.9 1449.3
819.4 1919.1 1442.0
820.0 1909.4 1434.3
820.5 1895.1 1427.8
821.1 1888.4 1415.7
821.6 1876.0 1403.9
822.2 1862.6 1394.8
822.7 1851.6 1382.3
823.3 1838.4 1370.1
823.9 1825.1 1357.0
824.4 1807.9 1346.3
825.0 1789.5 1338.5
825.5 1774.7 1327.6
826.1 1755.6 1321.9
826.6 1737.4 1314.1
827.2 1725.0 1311.3
827.7 1708.5 1304.4
828.3 1695.6 1300.6
828.8 1685.5 1297.4
829.4 1678.6 1293.9
829.9 1670.8 1289.2
830.5 1665.7 1287.5
831.0 1660.7 1286.9
831.6 1659.2 1285.6
832.2 1657.3 1283.6
832.7 1660.8 1283.2
833.3 1660.9 1283.6
833.8 1657.9 1284.7
834.4 1661.2 1284.9
834.9 1664.9 1284.8
835.5 1663.9 1284.9
836.0 1661.9 1285.3
836.6 1663.2 1283.3
837.1 1661.6 1280.9
837.7 1655.5 1283.6
838.2 1649.8 1282.3
838.8 1645.1 1281.3
839.3 1634.8 1281.8
839.9 1626.7 1283.3
840.4 1618.7 1282.4
841.0 1611.2 1279.3
841.5 1599.2 1281.4
842.1 1585.7 1280.8
842.6 1573.0 1280.0
843.2 1561.2 1279.6
843.8 1552.4 1274.9
844.3 1540.9 1270.6
844.9 1528.7 1265.3
845.4 1514.7 1261.4
846.0 1503.0 1256.9
846.5 1494.7 1247.7
847.1 1488.5 1239.4
847.6 1483.4 1231.9
848.2 1478.1 1226.6
848.7 1471.2 1221.0
849.3 1466.1 1214.3
849.8 1463.7 1209.7
850.4 1463.6 1200.5
850.9 1462.4 1195.0
851.5 1459.1 1192.2
852.0 1455.4 1188.7
852.6 1456.2 1183.6
853.1 1456.9 1176.9
853.7 1457.5 1172.2
854.2 1461.1 1167.4
854.8 1458.7 1161.5
855.3 1459.1 1162.3
855.9 1456.1 1159.3
856.4 1456.0 1154.6
857.0 1458.3 1150.7
857.5 1457.9 1143.5
858.1 1455.2 1140.8
858.6 1455.4 1136.3
859.2 1452.3 1133.6
859.7 1451.7 1130.9
860.3 1450.7 1124.9
860.8 1451.3 1117.8
861.4 1449.4 1114.4
861.9 1445.5 1109.1
862.5 1440.4 1107.7
863.0 1436.6 1102.8
863.6 1430.0 1099.7
864.1 1425.4 1095.4
864.7 1420.5 1090.5
865.2 1411.6 1089.0
865.8 1408.0 1087.4
866.3 1403.8 1084.3
866.9 1399.6 1081.1
867.4 1395.3 1078.9
868.0 1389.9 1074.8
868.5 1384.7 1069.9
869.1 1379.7 1066.9
869.6 1374.9 1062.6
870.2 1369.9 1054.2
870.7 1363.7 1053.2
871.3 1357.3 1047.5
871.8 1350.5 1045.4
872.4 1343.6 1040.4
872.9 1338.2 1037.8
873.5 1333.1 1036.8
874.0 1326.6 1032.7
874.6 1322.8 1030.4
875.1 1321.7 1027.0
875.7 1316.3 1018.5
876.2 1313.6 1017.7
876.8 1309.4 1014.5
877.3 1304.2 1010.3
877.9 1301.6 1005.4
878.4 1297.4 999.5
879.0 1297.1 996.9
879.5 1293.7 994.0
880.1 1289.2 991.6
880.6 1287.2 990.6
881.2 1283.5 983.9
881.7 1280.3 978.0
882.3 1277.8 973.2
882.8 1272.7 970.4
883.4 1269.9 968.4
883.9 1264.7 964.0
884.5 1257.0 959.5
885.0 1252.4 956.6
885.6 1245.9 951.3
886.1 1240.1 947.9
886.7 1236.5 944.6
887.2 1232.4 940.2
887.8 1229.1 936.2
888.3 1226.1 932.1
888.8 1221.1 925.3
889.4 1217.8 919.3
889.9 1214.6 915.5
890.5 1213.0 913.0
891.0 1209.2 908.2
891.6 1206.1 904.9
892.1 1201.9 902.3
892.7 1200.6 894.3
893.2 1194.3 888.9
893.8 1191.5 884.9
894.3 1187.6 881.7
894.9 1184.3 876.1
895.4 1179.2 870.8
896.0 1176.2 868.2
896.5 1173.0 864.5
897.1 1171.6 858.6
897.6 1166.1 856.8
898.2 1162.9 852.1
898.7 1160.0 853.0
899.3 1159.1 848.0
899.8 1156.2 842.3
900.4 1152.9 839.9
900.9 1149.4 833.1
901.4 1143.7 826.1
902.0 1137.8 824.1
902.5 1132.9 820.0
903.1 1130.5 818.0
903.6 1123.6 810.1
904.2 1118.0 804.3
904.7 1112.5 800.5
905.3 1106.6 794.1
905.8 1102.9 792.3
906.4 1097.1 789.0
906.9 1092.5 783.3
907.5 1088.3 780.4
908.0 1084.6 774.8
908.6 1079.1 770.0
909.1 1073.4 769.6
909.6 1068.5 767.3
910.2 1066.0 763.9
910.7 1059.2 760.1
911.3 1056.6 755.2
911.8 1049.4 750.5
912.4 1043.7 745.5
912.9 1039.7 741.2
913.5 1038.4 738.5
914.0 1033.3 734.2
914.6 1031.0 731.7
915.1 1023.7 728.2
915.7 1018.1 726.1
916.2 1014.2 725.1
916.7 1012.3 722.5
917.3 1010.9 720.4
917.8 1007.6 719.2
918.4 1002.5 715.8
918.9 995.4 712.5
919.5 986.2 709.9
920.0 982.3 705.3
920.6 977.5 699.7
921.1 970.8 696.6
921.7 966.3 694.2
922.2 960.9 689.9
922.7 951.6 685.3
923.3 947.5 681.9
923.8 946.2 676.3
924.4 942.3 671.4
924.9 936.6 668.8
925.5 933.8 664.5
926.0 929.1 659.5
926.6 923.9 655.7
927.1 918.8 652.7
927.6 915.6 649.9
928.2 908.6 647.6
928.7 904.7 648.0
929.3 901.7 645.5
929.8 899.0 643.5
930.4 895.1 641.8
930.9 891.5 639.9
931.5 886.9 637.9
932.0 881.4 637.9
932.6 877.4 634.0
933.1 874.0 629.0
933.6 868.1 624.7
934.2 863.4 621.7
934.7 860.1 618.3
935.3 855.9 616.6
935.8 853.3 611.7
936.4 848.0 608.3
936.9 846.7 602.3
937.4 843.5 598.5
938.0 840.2 595.4
938.5 837.9 591.5
939.1 834.6 586.9
939.6 831.8 583.0
940.2 828.6 580.2
940.7 826.0 578.4
941.3 825.3 574.3
941.8 821.2 571.2
942.3 816.7 567.1
942.9 815.8 564.5
943.4 813.3 562.6
944.0 813.4 559.8
944.5 810.9 555.8
945.1 808.2 550.1
945.6 804.8 547.6
946.1 802.5 544.4
946.7 798.5 540.5
947.2 796.4 540.3
947.8 789.9 535.9
948.3 787.4 530.8
948.9 782.6 528.6
949.4 779.3 526.5
949.9 775.6 524.7
950.5 772.5 519.5
951.0 767.6 517.8
951.6 766.7 515.5
952.1 763.1 510.4
952.7 761.6 507.7
953.2 757.4 503.2
953.7 751.6 497.5
954.3 748.0 493.2
954.8 744.3 488.3
955.4 737.9 485.5
955.9 734.7 480.7
956.5 728.3 476.1
957.0 726.1 473.0
957.5 723.6 469.5
958.1 721.3 466.4
958.6 719.5 463.3
959.2 718.1 460.0
959.7 714.4 455.1
960.3 711.4 450.1
960.8 706.7 446.9
961.3 704.1 443.1
961.9 700.4 437.8
962.4 694.5 433.9
963.0 689.8 431.8
963.5 685.4 427.9
964.0 679.9 424.0
964.6 674.5 421.8
965.1 671.4 419.4
965.7 669.5 416.1
966.2 667.1 413.1
966.8 662.0 410.1
967.3 657.5 406.3
967.8 654.5 403.2
968.4 649.8 399.5
968.9 644.0 396.6
969.5 643.3 394.0
970.0 639.1 391.7